File: FatigueLife.csv
Matrix material,Reinforcement material,Volume fraction,Processing method,Microstructure type,RVE Size,Average particle size,Matrix Young's modulus,Reinforcement  Young's modulus,Matrix Poisson ratio,Reinforcement Poisson ratio,Matrix density ,  Reinforcement density,Composite Young's modulus,"Composite Yield Strength, ?y (MPa)",Composite fracture stress,Composite fracture strain,Cyclic loading conditions,Three-point bending model dimensions,Loading Type,Stress ratio,Frequency,Fatigue strength coefficient,Fatigue ductility coefficient  ,Cyclic strength coefficient,Cyclic strain hardening exponent,Load,Fatigue life
1,1,10,1,1,1,0.8,70,410,0.33,0.17,2700,3200,77.55,136,205,0.093,1,1,1,0,15,364,0.242,401.69,0.1528,1950,810
1,1,10,1,1,1,0.8,70,410,0.33,0.17,2700,3200,77.55,136,205,0.093,1,1,1,0,15,364,0.242,401.69,0.1528,1910,1472
1,1,10,1,1,1,0.8,70,410,0.33,0.17,2700,3200,77.55,136,205,0.093,1,1,1,0,15,364,0.242,401.69,0.1528,1870,1817
1,1,10,1,1,1,0.8,70,410,0.33,0.17,2700,3200,77.55,136,205,0.093,1,1,1,0,15,364,0.242,401.69,0.1528,1830,2265
1,1,10,1,1,1,0.8,70,410,0.33,0.17,2700,3200,77.55,136,205,0.093,1,1,1,0,15,364,0.242,401.69,0.1528,1790,2603
1,1,10,1,1,1,0.8,70,410,0.33,0.17,2700,3200,77.55,136,205,0.093,1,1,1,0,15,364,0.242,401.69,0.1528,1750,3220
1,1,10,1,1,1,0.8,70,410,0.33,0.17,2700,3200,77.55,136,205,0.093,1,1,1,0,15,364,0.242,401.69,0.1528,1710,3682
1,1,10,1,1,1,0.8,70,410,0.33,0.17,2700,3200,77.55,136,205,0.093,1,1,1,0,15,364,0.242,401.69,0.1528,1670,4223
1,1,10,1,1,1,0.8,70,410,0.33,0.17,2700,3200,77.55,136,205,0.093,1,1,1,0,15,364,0.242,401.69,0.1528,1630,5064
1,1,10,1,1,1,0.8,70,410,0.33,0.17,2700,3200,77.55,136,205,0.093,1,1,1,0,15,364,0.242,401.69,0.1528,1590,5886
1,1,10,1,1,1,0.8,70,410,0.33,0.17,2700,3200,77.55,136,205,0.093,1,1,1,0,15,364,0.242,401.69,0.1528,1550,6655
1,1,20,1,1,1,0.8,70,410,0.33,0.17,2700,3200,88.69,160.7,233.6,0.0574,1,1,1,0,15,407,0.09,433.68,0.14495,1920,770
1,1,20,1,1,1,0.8,70,410,0.33,0.17,2700,3200,88.69,160.7,233.6,0.0574,1,1,1,0,15,407,0.09,433.68,0.14495,1880,910
1,1,20,1,1,1,0.8,70,410,0.33,0.17,2700,3200,88.69,160.7,233.6,0.0574,1,1,1,0,15,407,0.09,433.68,0.14495,1840,1260
1,1,20,1,1,1,0.8,70,410,0.33,0.17,2700,3200,88.69,160.7,233.6,0.0574,1,1,1,0,15,407,0.09,433.68,0.14495,1800,2392
1,1,20,1,1,1,0.8,70,410,0.33,0.17,2700,3200,88.69,160.7,233.6,0.0574,1,1,1,0,15,407,0.09,433.68,0.14495,1760,3753
1,1,20,1,1,1,0.8,70,410,0.33,0.17,2700,3200,88.69,160.7,233.6,0.0574,1,1,1,0,15,407,0.09,433.68,0.14495,1720,6429
1,1,20,1,1,1,0.8,70,410,0.33,0.17,2700,3200,88.69,160.7,233.6,0.0574,1,1,1,0,15,407,0.09,433.68,0.14495,1680,10147
1,1,20,1,1,1,0.8,70,410,0.33,0.17,2700,3200,88.69,160.7,233.6,0.0574,1,1,1,0,15,407,0.09,433.68,0.14495,1640,14135
1,1,20,1,1,1,0.8,70,410,0.33,0.17,2700,3200,88.69,160.7,233.6,0.0574,1,1,1,0,15,407,0.09,433.68,0.14495,1600,16328
1,1,20,1,1,1,0.8,70,410,0.33,0.17,2700,3200,88.69,160.7,233.6,0.0574,1,1,1,0,15,407,0.09,433.68,0.14495,1560,21469
1,1,30,1,1,1,0.8,70,410,0.33,0.17,2700,3200,95.97,235.2,287.6,0.023,1,1,1,0,15,499,0.0602,517,0.1309,1930,999
1,1,30,1,1,1,0.8,70,410,0.33,0.17,2700,3200,95.97,235.2,287.6,0.023,1,1,1,0,15,499,0.0602,517,0.1309,1890,1194
1,1,30,1,1,1,0.8,70,410,0.33,0.17,2700,3200,95.97,235.2,287.6,0.023,1,1,1,0,15,499,0.0602,517,0.1309,1850,1419
1,1,30,1,1,1,0.8,70,410,0.33,0.17,2700,3200,95.97,235.2,287.6,0.023,1,1,1,0,15,499,0.0602,517,0.1309,1810,1823
1,1,30,1,1,1,0.8,70,410,0.33,0.17,2700,3200,95.97,235.2,287.6,0.023,1,1,1,0,15,499,0.0602,517,0.1309,1770,2419
1,1,30,1,1,1,0.8,70,410,0.33,0.17,2700,3200,95.97,235.2,287.6,0.023,1,1,1,0,15,499,0.0602,517,0.1309,1730,3006
1,1,30,1,1,1,0.8,70,410,0.33,0.17,2700,3200,95.97,235.2,287.6,0.023,1,1,1,0,15,499,0.0602,517,0.1309,1690,3618
1,1,30,1,1,1,0.8,70,410,0.33,0.17,2700,3200,95.97,235.2,287.6,0.023,1,1,1,0,15,499,0.0602,517,0.1309,1650,5559
1,1,30,1,1,1,0.8,70,410,0.33,0.17,2700,3200,95.97,235.2,287.6,0.023,1,1,1,0,15,499,0.0602,517,0.1309,1610,7841
1,1,30,1,1,1,0.8,70,410,0.33,0.17,2700,3200,95.97,235.2,287.6,0.023,1,1,1,0,15,499,0.0602,517,0.1309,1570,10818
1,1,40,1,1,1,0.8,70,410,0.33,0.17,2700,3200,105.5,180,226,0.0104,1,1,1,0,15,390.3,0.0159,422,0.1297,1590,822
1,1,40,1,1,1,0.8,70,410,0.33,0.17,2700,3200,105.5,180,226,0.0104,1,1,1,0,15,390.3,0.0159,422,0.1297,1550,1123
1,1,40,1,1,1,0.8,70,410,0.33,0.17,2700,3200,105.5,180,226,0.0104,1,1,1,0,15,390.3,0.0159,422,0.1297,1510,1485
1,1,40,1,1,1,0.8,70,410,0.33,0.17,2700,3200,105.5,180,226,0.0104,1,1,1,0,15,390.3,0.0159,422,0.1297,1470,2026
1,1,40,1,1,1,0.8,70,410,0.33,0.17,2700,3200,105.5,180,226,0.0104,1,1,1,0,15,390.3,0.0159,422,0.1297,1430,2695
1,1,40,1,1,1,0.8,70,410,0.33,0.17,2700,3200,105.5,180,226,0.0104,1,1,1,0,15,390.3,0.0159,422,0.1297,1390,3540
1,1,40,1,1,1,0.8,70,410,0.33,0.17,2700,3200,105.5,180,226,0.0104,1,1,1,0,15,390.3,0.0159,422,0.1297,1350,4072
1,1,40,1,1,1,0.8,70,410,0.33,0.17,2700,3200,105.5,180,226,0.0104,1,1,1,0,15,390.3,0.0159,422,0.1297,1310,4965
1,1,40,1,1,1,0.8,70,410,0.33,0.17,2700,3200,105.5,180,226,0.0104,1,1,1,0,15,390.3,0.0159,422,0.1297,1270,6943
1,1,40,1,1,1,0.8,70,410,0.33,0.17,2700,3200,105.5,180,226,0.0104,1,1,1,0,15,390.3,0.0159,422,0.1297,1230,8400
1,1,50,2,1,1,0.8,70,410,0.33,0.17,2700,3200,135.6,150,192,0.00352,1,1,1,0,15,339,0.0178,315.84,0.1052,1000,747
1,1,50,2,1,1,0.8,70,410,0.33,0.17,2700,3200,135.6,150,192,0.00352,1,1,1,0,15,339,0.0178,315.84,0.1052,960,907
1,1,50,2,1,1,0.8,70,410,0.33,0.17,2700,3200,135.6,150,192,0.00352,1,1,1,0,15,339,0.0178,315.84,0.1052,920,1028
1,1,50,2,1,1,0.8,70,410,0.33,0.17,2700,3200,135.6,150,192,0.00352,1,1,1,0,15,339,0.0178,315.84,0.1052,880,1341
1,1,50,2,1,1,0.8,70,410,0.33,0.17,2700,3200,135.6,150,192,0.00352,1,1,1,0,15,339,0.0178,315.84,0.1052,840,1656
1,1,50,2,1,1,0.8,70,410,0.33,0.17,2700,3200,135.6,150,192,0.00352,1,1,1,0,15,339,0.0178,315.84,0.1052,800,2057
1,1,50,2,1,1,0.8,70,410,0.33,0.17,2700,3200,135.6,150,192,0.00352,1,1,1,0,15,339,0.0178,315.84,0.1052,760,3628
1,1,50,2,1,1,0.8,70,410,0.33,0.17,2700,3200,135.6,150,192,0.00352,1,1,1,0,15,339,0.0178,315.84,0.1052,720,6448
1,1,50,2,1,1,0.8,70,410,0.33,0.17,2700,3200,135.6,150,192,0.00352,1,1,1,0,15,339,0.0178,315.84,0.1052,680,10919
1,1,60,2,1,1,0.8,70,410,0.33,0.17,2700,3200,138.5,180,214,0.00327,1,1,1,0,15,373.9,0.0164,331.7,0.1,1000,784.2
1,1,60,2,1,1,0.8,70,410,0.33,0.17,2700,3200,138.5,180,214,0.00327,1,1,1,0,15,373.9,0.0164,331.7,0.1,960,1025.93
1,1,60,2,1,1,0.8,70,410,0.33,0.17,2700,3200,138.5,180,214,0.00327,1,1,1,0,15,373.9,0.0164,331.7,0.1,920,1366.9
1,1,60,2,1,1,0.8,70,410,0.33,0.17,2700,3200,138.5,180,214,0.00327,1,1,1,0,15,373.9,0.0164,331.7,0.1,880,1636
1,1,60,2,1,1,0.8,70,410,0.33,0.17,2700,3200,138.5,180,214,0.00327,1,1,1,0,15,373.9,0.0164,331.7,0.1,840,2385
1,1,60,2,1,1,0.8,70,410,0.33,0.17,2700,3200,138.5,180,214,0.00327,1,1,1,0,15,373.9,0.0164,331.7,0.1,800,3069
1,1,60,2,1,1,0.8,70,410,0.33,0.17,2700,3200,138.5,180,214,0.00327,1,1,1,0,15,373.9,0.0164,331.7,0.1,760,5151.3
1,1,60,2,1,1,0.8,70,410,0.33,0.17,2700,3200,138.5,180,214,0.00327,1,1,1,0,15,373.9,0.0164,331.7,0.1,720,8295.6
1,1,60,2,1,1,0.8,70,410,0.33,0.17,2700,3200,138.5,180,214,0.00327,1,1,1,0,15,373.9,0.0164,331.7,0.1,680,16790.6
1,1,70,2,1,1,0.8,70,410,0.33,0.17,2700,3200,140.96,210,250,0.0028,1,1,1,0,15,436.92,0.0149,353,0.0899,1000,1545.05
1,1,70,2,1,1,0.8,70,410,0.33,0.17,2700,3200,140.96,210,250,0.0028,1,1,1,0,15,436.92,0.0149,353,0.0899,960,1748.6
1,1,70,2,1,1,0.8,70,410,0.33,0.17,2700,3200,140.96,210,250,0.0028,1,1,1,0,15,436.92,0.0149,353,0.0899,920,2099
1,1,70,2,1,1,0.8,70,410,0.33,0.17,2700,3200,140.96,210,250,0.0028,1,1,1,0,15,436.92,0.0149,353,0.0899,880,2796.79
1,1,70,2,1,1,0.8,70,410,0.33,0.17,2700,3200,140.96,210,250,0.0028,1,1,1,0,15,436.92,0.0149,353,0.0899,840,4089
1,1,70,2,1,1,0.8,70,410,0.33,0.17,2700,3200,140.96,210,250,0.0028,1,1,1,0,15,436.92,0.0149,353,0.0899,800,6403
1,1,70,2,1,1,0.8,70,410,0.33,0.17,2700,3200,140.96,210,250,0.0028,1,1,1,0,15,436.92,0.0149,353,0.0899,760,8903.157
1,1,70,2,1,1,0.8,70,410,0.33,0.17,2700,3200,140.96,210,250,0.0028,1,1,1,0,15,436.92,0.0149,353,0.0899,720,12465.6
1,1,70,2,1,1,0.8,70,410,0.33,0.17,2700,3200,140.96,210,250,0.0028,1,1,1,0,15,436.92,0.0149,353,0.0899,680,22164.6
1,1,70,2,1,1,0.8,70,410,0.33,0.17,2700,3200,140.96,210,250,0.0028,1,1,1,0,15,436.92,0.0149,353,0.0899,650,29761