File: ModulasStrainTrain.csv
Volume Fraction,Matrix Density (kg/m^3),Matrix Elastic Modulus (MPa),Matrix Yield Strength (MPa),Matrix Hardening Parameter,Temperature (K),Filler Density (kg/m^3),Filler Elastic Modulus 1,Filler Poisson 1,Elastic Modulus
0.38,1490,2662.56,252.049,0.545588,233,1770,220000,0.2,5850.72
0.38,1490,2621.47,149.59,0.431152,273,1770,220000,0.2,5765.23
0.38,1490,2576.27,79.918,0.346129,333,1770,220000,0.2,5663.62
0.38,1490,1152.54,43.0328,0.277231,393,1770,220000,0.2,2613.94
0.38,1490,2621.47,149.59,0.431152,273,2540,75000,0.2,5740.89
0.38,1490,2542.37,106.557,0.444529,298,2540,75000,0.2,5578.7
0.38,1490,1152.54,43.0328,0.277231,393,2540,75000,0.2,2621.31
0.38,1490,2662.56,252.049,0.545588,233,1470,150000,0.35,5511.4
0.38,1490,2542.37,106.557,0.444529,298,1470,150000,0.35,5275.03
0.38,1490,2576.27,79.918,0.346129,333,1470,150000,0.35,5331.47
0.38,1490,2662.56,252.049,0.545588,233,2530,85000,0.35,5849.36
0.38,1490,2621.47,149.59,0.431152,273,2530,85000,0.35,5751.14
0.38,1490,2576.27,79.918,0.346129,333,2530,85000,0.35,5654.85
0.38,1490,1152.54,43.0328,0.277231,393,2530,85000,0.35,2623.46
0.37,1200,1354.23,77.5862,0.232567,273,1770,220000,0.2,2970.82
0.37,1200,1655.17,67.2414,0.544621,298,1770,220000,0.2,3599.81
0.37,1200,1075.86,46.5517,0.285244,393,1770,220000,0.2,2373.37
0.37,1200,1186.21,89.6552,0.229998,233,2540,75000,0.2,2615.47
0.37,1200,1655.17,67.2414,0.544621,298,2540,75000,0.2,3597.72
0.37,1200,1396.55,62.069,0.346699,333,2540,75000,0.2,3063.29
0.37,1200,1186.21,89.6552,0.229998,233,1470,150000,0.35,2514.07
0.37,1200,1354.23,77.5862,0.232567,273,1470,150000,0.35,2850.43
0.37,1200,1396.55,62.069,0.346699,333,1470,150000,0.35,2934.61
0.37,1200,1075.86,46.5517,0.285244,393,1470,150000,0.35,2289.05
0.37,1200,1354.23,77.5862,0.232567,273,2530,85000,0.35,2974.15
0.37,1200,1655.17,67.2414,0.544621,298,2530,85000,0.35,3601.9
0.37,1200,1075.86,46.5517,0.285244,393,2530,85000,0.35,2376.1
0.36,1180,2658.67,252.049,0.545588,233,1770,220000,0.2,5550.67
0.36,1180,2448.77,106.557,0.444529,298,1770,220000,0.2,5121.77
0.36,1180,1652.92,79.918,0.346129,333,1770,220000,0.2,3513.73
0.36,1180,2658.67,252.049,0.545588,233,2540,75000,0.2,5529.33
0.36,1180,2742.62,149.59,0.431152,273,2540,75000,0.2,5685.54
0.36,1180,1652.92,79.918,0.346129,333,2540,75000,0.2,3514.2
0.36,1180,1567.21,43.0328,0.277231,393,2540,75000,0.2,3340.94
0.36,1180,2742.62,149.59,0.431152,273,1470,150000,0.35,5418.63
0.36,1180,2448.77,106.557,0.444529,298,1470,150000,0.35,4867.38
0.36,1180,1567.21,43.0328,0.277231,393,1470,150000,0.35,3202.56
0.36,1180,2658.67,252.049,0.545588,233,2530,85000,0.35,5536.47
0.36,1180,2448.77,106.557,0.444529,298,2530,85000,0.35,5122.84
0.36,1180,1652.92,79.918,0.346129,333,2530,85000,0.35,3518.29