File: ModulasStrainTest.csv
Volume Fraction,Matrix Density (kg/m^3),Matrix Elastic Modulus (MPa),Matrix Yield Strength (MPa),Matrix Hardening Parameter,Temperature (K),Filler Density (kg/m^3),Filler Elastic Modulus 1,Filler Poisson 1,Composite Elastic Modulus (MPa)
0.38,1490,2542.37,106.557,0.444529,298,1770,220000,0.2,5600.32
0.38,1490,2662.56,252.049,0.545588,233,2540,75000,0.2,5838.2
0.38,1490,2576.27,79.918,0.346129,333,2540,75000,0.2,5645.09
0.38,1490,2621.47,149.59,0.431152,273,1470,150000,0.35,5424.92
0.38,1490,1152.54,43.0328,0.277231,393,1470,150000,0.35,2509.82
0.38,1490,2542.37,106.557,0.444529,298,2530,85000,0.35,5592
0.37,1200,1186.21,89.6552,0.229998,233,1770,220000,0.2,2612.46
0.37,1200,1396.55,62.069,0.346699,333,1770,220000,0.2,3057.31
0.37,1200,1354.23,77.5862,0.232567,273,2540,75000,0.2,2971.16
0.37,1200,1075.86,46.5517,0.285244,393,2540,75000,0.2,2374.26
0.37,1200,1655.17,67.2414,0.544621,298,1470,150000,0.35,3444.79
0.37,1200,1186.21,89.6552,0.229998,233,2530,85000,0.35,2617.85
0.37,1200,1396.55,62.069,0.346699,333,2530,85000,0.35,3063.83
0.36,1180,2742.62,149.59,0.431152,273,1770,220000,0.2,5709.76
0.36,1180,1567.21,43.0328,0.277231,393,1770,220000,0.2,3340.44
0.36,1180,2448.77,106.557,0.444529,298,2540,75000,0.2,5113.91
0.36,1180,2658.67,252.049,0.545588,233,1470,150000,0.35,5266.62
0.36,1180,1652.92,79.918,0.346129,333,1470,150000,0.35,3361.96
0.36,1180,2742.62,149.59,0.431152,273,2530,85000,0.35,5704.5
0.36,1180,1567.21,43.0328,0.277231,393,2530,85000,0.35,3344.72