File: resilience_srTrain.csv
Volume Fraction,Matrix Density (kg/m^3),Matrix Elastic Modulus (MPa),Matrix Yield Strength (MPa),Matrix Hardening Parameter,Temperature (K),Filler Density (kg/m^3),Filler Elastic Modulus 1,Filler Poisson 1,Resilience
0.38,1490,2662.56,252.049,0.545588,233,1770,220000,0.2,7.06098
0.38,1490,2621.47,149.59,0.431152,273,1770,220000,0.2,2.89004
0.38,1490,2576.27,79.918,0.346129,333,1770,220000,0.2,1.10033
0.38,1490,1152.54,43.0328,0.277231,393,1770,220000,0.2,0.697607
0.38,1490,2621.47,149.59,0.431152,273,2540,75000,0.2,3.12085
0.38,1490,2542.37,106.557,0.444529,298,2540,75000,0.2,1.84159
0.38,1490,1152.54,43.0328,0.277231,393,2540,75000,0.2,0.705558
0.38,1490,2662.56,252.049,0.545588,233,1470,150000,0.35,6.95805
0.38,1490,2542.37,106.557,0.444529,298,1470,150000,0.35,1.65503
0.38,1490,2576.27,79.918,0.346129,333,1470,150000,0.35,1.07028
0.38,1490,2662.56,252.049,0.545588,233,2530,85000,0.35,7.65401
0.38,1490,2621.47,149.59,0.431152,273,2530,85000,0.35,3.10431
0.38,1490,2576.27,79.918,0.346129,333,2530,85000,0.35,1.20007
0.38,1490,1152.54,43.0328,0.277231,393,2530,85000,0.35,0.703452
0.37,1200,1354.23,77.5862,0.232567,273,1770,220000,0.2,1.09982
0.37,1200,1655.17,67.2414,0.544621,298,1770,220000,0.2,0.997162
0.37,1200,1075.86,46.5517,0.285244,393,1770,220000,0.2,2.24281
0.37,1200,1186.21,89.6552,0.229998,233,2540,75000,0.2,1.49033
0.37,1200,1655.17,67.2414,0.544621,298,2540,75000,0.2,1.03379
0.37,1200,1396.55,62.069,0.346699,333,2540,75000,0.2,0.774155
0.37,1200,1186.21,89.6552,0.229998,233,1470,150000,0.35,1.43717
0.37,1200,1354.23,77.5862,0.232567,273,1470,150000,0.35,1.03999
0.37,1200,1396.55,62.069,0.346699,333,1470,150000,0.35,0.735213
0.37,1200,1075.86,46.5517,0.285244,393,1470,150000,0.35,2.25715
0.37,1200,1354.23,77.5862,0.232567,273,2530,85000,0.35,1.13724
0.37,1200,1655.17,67.2414,0.544621,298,2530,85000,0.35,1.03073
0.37,1200,1075.86,46.5517,0.285244,393,2530,85000,0.35,7.09865
0.36,1180,2658.67,252.049,0.545588,233,1770,220000,0.2,1.7597
0.36,1180,2448.77,106.557,0.444529,298,1770,220000,0.2,0.53797
0.36,1180,1652.92,79.918,0.346129,333,1770,220000,0.2,7.67519
0.36,1180,2658.67,252.049,0.545588,233,2540,75000,0.2,1.87659
0.36,1180,2742.62,149.59,0.431152,273,2540,75000,0.2,1.65613
0.36,1180,1652.92,79.918,0.346129,333,2540,75000,0.2,6.85144
0.36,1180,1567.21,43.0328,0.277231,393,2540,75000,0.2,2.69207
0.36,1180,2742.62,149.59,0.431152,273,1470,150000,0.35,1.54864
0.36,1180,2448.77,106.557,0.444529,298,1470,150000,0.35,0.516423
0.36,1180,1567.21,43.0328,0.277231,393,1470,150000,0.35,3.02591
0.36,1180,2658.67,252.049,0.545588,233,2530,85000,0.35,1.86618
0.36,1180,2448.77,106.557,0.444529,298,2530,85000,0.35,1.92343
0.36,1180,1652.92,79.918,0.346129,333,2530,85000,0.35,1.70675