File: resilience_srTest.csv
Volume Fraction,Matrix Density (kg/m^3),Matrix Elastic Modulus (MPa),Matrix Yield Strength (MPa),Matrix Hardening Parameter,Temperature (K),Filler Density (kg/m^3),Filler Elastic Modulus 1,Filler Poisson 1,Resilience
0.38,1490,2542.37,106.557,0.444529,298,1770,220000,0.2,1.70247
0.38,1490,2662.56,252.049,0.545588,233,2540,75000,0.2,7.69734
0.38,1490,2576.27,79.918,0.346129,333,2540,75000,0.2,1.18269
0.38,1490,2621.47,149.59,0.431152,273,1470,150000,0.35,2.80938
0.38,1490,1152.54,43.0328,0.277231,393,1470,150000,0.35,0.667993
0.38,1490,2542.37,106.557,0.444529,298,2530,85000,0.35,1.83044
0.37,1200,1186.21,89.6552,0.229998,233,1770,220000,0.2,1.45343
0.37,1200,1396.55,62.069,0.346699,333,1770,220000,0.2,0.743778
0.37,1200,1354.23,77.5862,0.232567,273,2540,75000,0.2,1.14238
0.37,1200,1075.86,46.5517,0.285244,393,2540,75000,0.2,2.11645
0.37,1200,1655.17,67.2414,0.544621,298,1470,150000,0.35,0.97018
0.37,1200,1186.21,89.6552,0.229998,233,2530,85000,0.35,1.48579
0.37,1200,1396.55,62.069,0.346699,333,2530,85000,0.35,0.772227
0.36,1180,2742.62,149.59,0.431152,273,1770,220000,0.2,1.55785
0.36,1180,1567.21,43.0328,0.277231,393,1770,220000,0.2,3.067
0.36,1180,2448.77,106.557,0.444529,298,2540,75000,0.2,0.557003
0.36,1180,2658.67,252.049,0.545588,233,1470,150000,0.35,1.66461
0.36,1180,1652.92,79.918,0.346129,333,1470,150000,0.35,7.57004
0.36,1180,2742.62,149.59,0.431152,273,2530,85000,0.35,1.64854
0.36,1180,1567.21,43.0328,0.277231,393,2530,85000,0.35,0.588436