File: strain_resilience.csv
Volume Fraction,Matrix Density (kg/m^3),Matrix Elastic Modulus (MPa),Matrix Poisson's Ratio,Matrix Yield Strength (MPa),Matrix Hardening Parameter,Temperature (K),Filler Density (kg/m^3),Filler Elastic Modulus 1,Filler Elastic Modulus 2,Filler Elastic Modulus 3,Filler Poisson 1,Filler Poisson 2,Filler Poisson 3,Filler Shear 1,Filler Shear 2,Filler Shear 3,Resilience
0.38,1490,2662.56,0.38,252.049,0.545588,233,1770,220000,14000,14000,0.2,0.2,0.25,9000,9000,4600,7.06098
0.38,1490,2621.47,0.38,149.59,0.431152,273,1770,220000,14000,14000,0.2,0.2,0.25,9000,9000,4600,2.89004
0.38,1490,2542.37,0.38,106.557,0.444529,298,1770,220000,14000,14000,0.2,0.2,0.25,9000,9000,4600,1.70247
0.38,1490,2576.27,0.38,79.918,0.346129,333,1770,220000,14000,14000,0.2,0.2,0.25,9000,9000,4600,1.10033
0.38,1490,1152.54,0.38,43.0328,0.277231,393,1770,220000,14000,14000,0.2,0.2,0.25,9000,9000,4600,0.697607
0.38,1490,2662.56,0.38,252.049,0.545588,233,2540,75000,75000,75000,0.2,0.2,0.22,30000,30000,30000,7.69734
0.38,1490,2621.47,0.38,149.59,0.431152,273,2540,75000,75000,75000,0.2,0.2,0.22,30000,30000,30000,3.12085
0.38,1490,2542.37,0.38,106.557,0.444529,298,2540,75000,75000,75000,0.2,0.2,0.22,30000,30000,30000,1.84159
0.38,1490,2576.27,0.38,79.918,0.346129,333,2540,75000,75000,75000,0.2,0.2,0.22,30000,30000,30000,1.18269
0.38,1490,1152.54,0.38,43.0328,0.277231,393,2540,75000,75000,75000,0.2,0.2,0.22,30000,30000,30000,0.705558
0.38,1490,2662.56,0.38,252.049,0.545588,233,1470,150000,4200,4200,0.35,0.35,0.35,2900,2900,1500,6.95805
0.38,1490,2621.47,0.38,149.59,0.431152,273,1470,150000,4200,4200,0.35,0.35,0.35,2900,2900,1500,2.80938
0.38,1490,2542.37,0.38,106.557,0.444529,298,1470,150000,4200,4200,0.35,0.35,0.35,2900,2900,1500,1.65503
0.38,1490,2576.27,0.38,79.918,0.346129,333,1470,150000,4200,4200,0.35,0.35,0.35,2900,2900,1500,1.07028
0.38,1490,1152.54,0.38,43.0328,0.277231,393,1470,150000,4200,4200,0.35,0.35,0.35,2900,2900,1500,0.667993
0.38,1490,2662.56,0.38,252.049,0.545588,233,2530,85000,85000,85000,0.35,0.35,0.35,36000,36000,36000,7.65401
0.38,1490,2621.47,0.38,149.59,0.431152,273,2530,85000,85000,85000,0.35,0.35,0.35,36000,36000,36000,3.10431
0.38,1490,2542.37,0.38,106.557,0.444529,298,2530,85000,85000,85000,0.35,0.35,0.35,36000,36000,36000,1.83044
0.38,1490,2576.27,0.38,79.918,0.346129,333,2530,85000,85000,85000,0.35,0.35,0.35,36000,36000,36000,1.20007
0.38,1490,1152.54,0.38,43.0328,0.277231,393,2530,85000,85000,85000,0.35,0.35,0.35,36000,36000,36000,0.703452
0.37,1200,1186.21,0.37,89.6552,0.229998,233,1770,220000,14000,14000,0.2,0.2,0.25,9000,9000,4600,1.45343
0.37,1200,1354.23,0.37,77.5862,0.232567,273,1770,220000,14000,14000,0.2,0.2,0.25,9000,9000,4600,1.09982
0.37,1200,1655.17,0.37,67.2414,0.544621,298,1770,220000,14000,14000,0.2,0.2,0.25,9000,9000,4600,0.997162
0.37,1200,1396.55,0.37,62.069,0.346699,333,1770,220000,14000,14000,0.2,0.2,0.25,9000,9000,4600,0.743778
0.37,1200,1075.86,0.37,46.5517,0.285244,393,1770,220000,14000,14000,0.2,0.2,0.25,9000,9000,4600,2.24281
0.37,1200,1186.21,0.37,89.6552,0.229998,233,2540,75000,75000,75000,0.2,0.2,0.22,30000,30000,30000,1.49033
0.37,1200,1354.23,0.37,77.5862,0.232567,273,2540,75000,75000,75000,0.2,0.2,0.22,30000,30000,30000,1.14238
0.37,1200,1655.17,0.37,67.2414,0.544621,298,2540,75000,75000,75000,0.2,0.2,0.22,30000,30000,30000,1.03379
0.37,1200,1396.55,0.37,62.069,0.346699,333,2540,75000,75000,75000,0.2,0.2,0.22,30000,30000,30000,0.774155
0.37,1200,1075.86,0.37,46.5517,0.285244,393,2540,75000,75000,75000,0.2,0.2,0.22,30000,30000,30000,2.11645
0.37,1200,1186.21,0.37,89.6552,0.229998,233,1470,150000,4200,4200,0.35,0.35,0.35,2900,2900,1500,1.43717
0.37,1200,1354.23,0.37,77.5862,0.232567,273,1470,150000,4200,4200,0.35,0.35,0.35,2900,2900,1500,1.03999
0.37,1200,1655.17,0.37,67.2414,0.544621,298,1470,150000,4200,4200,0.35,0.35,0.35,2900,2900,1500,0.97018
0.37,1200,1396.55,0.37,62.069,0.346699,333,1470,150000,4200,4200,0.35,0.35,0.35,2900,2900,1500,0.735213
0.37,1200,1075.86,0.37,46.5517,0.285244,393,1470,150000,4200,4200,0.35,0.35,0.35,2900,2900,1500,2.25715
0.37,1200,1186.21,0.37,89.6552,0.229998,233,2530,85000,85000,85000,0.35,0.35,0.35,36000,36000,36000,1.48579
0.37,1200,1354.23,0.37,77.5862,0.232567,273,2530,85000,85000,85000,0.35,0.35,0.35,36000,36000,36000,1.13724
0.37,1200,1655.17,0.37,67.2414,0.544621,298,2530,85000,85000,85000,0.35,0.35,0.35,36000,36000,36000,1.03073
0.37,1200,1396.55,0.37,62.069,0.346699,333,2530,85000,85000,85000,0.35,0.35,0.35,36000,36000,36000,0.772227
0.37,1200,1075.86,0.37,46.5517,0.285244,393,2530,85000,85000,85000,0.35,0.35,0.35,36000,36000,36000,7.09865
0.36,1180,2658.67,0.36,252.049,0.545588,233,1770,220000,14000,14000,0.2,0.2,0.25,9000,9000,4600,1.7597
0.36,1180,2742.62,0.36,149.59,0.431152,273,1770,220000,14000,14000,0.2,0.2,0.25,9000,9000,4600,1.55785
0.36,1180,2448.77,0.36,106.557,0.444529,298,1770,220000,14000,14000,0.2,0.2,0.25,9000,9000,4600,0.53797
0.36,1180,1652.92,0.36,79.918,0.346129,333,1770,220000,14000,14000,0.2,0.2,0.25,9000,9000,4600,7.67519
0.36,1180,1567.21,0.36,43.0328,0.277231,393,1770,220000,14000,14000,0.2,0.2,0.25,9000,9000,4600,3.067
0.36,1180,2658.67,0.36,252.049,0.545588,233,2540,75000,75000,75000,0.2,0.2,0.22,30000,30000,30000,1.87659
0.36,1180,2742.62,0.36,149.59,0.431152,273,2540,75000,75000,75000,0.2,0.2,0.22,30000,30000,30000,1.65613
0.36,1180,2448.77,0.36,106.557,0.444529,298,2540,75000,75000,75000,0.2,0.2,0.22,30000,30000,30000,0.557003
0.36,1180,1652.92,0.36,79.918,0.346129,333,2540,75000,75000,75000,0.2,0.2,0.22,30000,30000,30000,6.85144
0.36,1180,1567.21,0.36,43.0328,0.277231,393,2540,75000,75000,75000,0.2,0.2,0.22,30000,30000,30000,2.69207
0.36,1180,2658.67,0.36,252.049,0.545588,233,1470,150000,4200,4200,0.35,0.35,0.35,2900,2900,1500,1.66461
0.36,1180,2742.62,0.36,149.59,0.431152,273,1470,150000,4200,4200,0.35,0.35,0.35,2900,2900,1500,1.54864
0.36,1180,2448.77,0.36,106.557,0.444529,298,1470,150000,4200,4200,0.35,0.35,0.35,2900,2900,1500,0.516423
0.36,1180,1652.92,0.36,79.918,0.346129,333,1470,150000,4200,4200,0.35,0.35,0.35,2900,2900,1500,7.57004
0.36,1180,1567.21,0.36,43.0328,0.277231,393,1470,150000,4200,4200,0.35,0.35,0.35,2900,2900,1500,3.02591
0.36,1180,2658.67,0.36,252.049,0.545588,233,2530,85000,85000,85000,0.35,0.35,0.35,36000,36000,36000,1.86618
0.36,1180,2742.62,0.36,149.59,0.431152,273,2530,85000,85000,85000,0.35,0.35,0.35,36000,36000,36000,1.64854
0.36,1180,2448.77,0.36,106.557,0.444529,298,2530,85000,85000,85000,0.35,0.35,0.35,36000,36000,36000,1.92343
0.36,1180,1652.92,0.36,79.918,0.346129,333,2530,85000,85000,85000,0.35,0.35,0.35,36000,36000,36000,1.70675
0.36,1180,1567.21,0.36,43.0328,0.277231,393,2530,85000,85000,85000,0.35,0.35,0.35,36000,36000,36000,0.588436