File: ys_rate.csv
Volume Fraction,Matrix Density (kg/m^3),Matrix Elastic Modulus (MPa),Matrix Yield Strength (MPa),Matrix Hardening Parameter,Temperature (K),Filler Density (kg/m^3),Filler Elastic Modulus 1,Filler Poisson 1,Yield Strength
0.38,1490,2542.37,106.557,0.444529,298,1770,220000,0.2,129.846
0.38,1490,2662.56,252.049,0.545588,233,2540,75000,0.2,293.007
0.38,1490,2576.27,79.918,0.346129,333,2540,75000,0.2,109.248
0.38,1490,2621.47,149.59,0.431152,273,1470,150000,0.35,166.949
0.38,1490,1152.54,43.0328,0.277231,393,1470,150000,0.35,54.3294
0.38,1490,2542.37,106.557,0.444529,298,2530,85000,0.35,135.109
0.37,1200,1186.21,89.6552,0.229998,233,1770,220000,0.2,99.4528
0.37,1200,1396.55,62.069,0.346699,333,1770,220000,0.2,71.9723
0.37,1200,1354.23,77.5862,0.232567,273,2540,75000,0.2,88.8058
0.37,1200,1075.86,46.5517,0.285244,393,2540,75000,0.2,55.8567
0.37,1200,1655.17,67.2414,0.544621,298,1470,150000,0.35,79.1092
0.37,1200,1186.21,89.6552,0.229998,233,2530,85000,0.35,102.236
0.37,1200,1396.55,62.069,0.346699,333,2530,85000,0.35,72.6214
0.36,1180,2742.62,149.59,0.431152,273,1770,220000,0.2,174.368
0.36,1180,1567.21,43.0328,0.277231,393,1770,220000,0.2,57.0214
0.36,1180,2448.77,106.557,0.444529,298,2540,75000,0.2,134.059
0.36,1180,2658.67,252.049,0.545588,233,1470,150000,0.35,268.718
0.36,1180,1652.92,79.918,0.346129,333,1470,150000,0.35,98.5792
0.36,1180,2742.62,149.59,0.431152,273,2530,85000,0.35,178.233
0.36,1180,1567.21,43.0328,0.277231,393,2530,85000,0.35,58.5954