File: ys_rateTrain.csv
Volume Fraction,Matrix Density (kg/m^3),Matrix Elastic Modulus (MPa),Matrix Yield Strength (MPa),Matrix Hardening Parameter,Temperature (K),Filler Density (kg/m^3),Filler Elastic Modulus 1,Filler Poisson 1,Yield Strength
0.38,1490,2662.56,252.049,0.545588,233,1770,220000,0.2,279.767
0.38,1490,2621.47,149.59,0.431152,273,1770,220000,0.2,175.415
0.38,1490,2576.27,79.918,0.346129,333,1770,220000,0.2,104.573
0.38,1490,1152.54,43.0328,0.277231,393,1770,220000,0.2,56.8109
0.38,1490,2621.47,149.59,0.431152,273,2540,75000,0.2,182.123
0.38,1490,2542.37,106.557,0.444529,298,2540,75000,0.2,135.622
0.38,1490,1152.54,43.0328,0.277231,393,2540,75000,0.2,57.1854
0.38,1490,2662.56,252.049,0.545588,233,1470,150000,0.35,269.594
0.38,1490,2542.37,106.557,0.444529,298,1470,150000,0.35,125.465
0.38,1490,2576.27,79.918,0.346129,333,1470,150000,0.35,100.098
0.38,1490,2662.56,252.049,0.545588,233,2530,85000,0.35,291.843
0.38,1490,2621.47,149.59,0.431152,273,2530,85000,0.35,181.429
0.38,1490,2576.27,79.918,0.346129,333,2530,85000,0.35,109.717
0.38,1490,1152.54,43.0328,0.277231,393,2530,85000,0.35,57.085
0.37,1200,1354.23,77.5862,0.232567,273,1770,220000,0.2,85.099
0.37,1200,1655.17,67.2414,0.544621,298,1770,220000,0.2,80.8949
0.37,1200,1075.86,46.5517,0.285244,393,1770,220000,0.2,54.5063
0.37,1200,1186.21,89.6552,0.229998,233,2540,75000,0.2,102.517
0.37,1200,1655.17,67.2414,0.544621,298,2540,75000,0.2,84.0981
0.37,1200,1396.55,62.069,0.346699,333,2540,75000,0.2,72.8117
0.37,1200,1186.21,89.6552,0.229998,233,1470,150000,0.35,96.7513
0.37,1200,1354.23,77.5862,0.232567,273,1470,150000,0.35,82.2676
0.37,1200,1396.55,62.069,0.346699,333,1470,150000,0.35,69.9077
0.37,1200,1075.86,46.5517,0.285244,393,1470,150000,0.35,52.4786
0.37,1200,1354.23,77.5862,0.232567,273,2530,85000,0.35,88.6087
0.37,1200,1655.17,67.2414,0.544621,298,2530,85000,0.35,83.8653
0.37,1200,1075.86,46.5517,0.285244,393,2530,85000,0.35,55.7638
0.36,1180,2658.67,252.049,0.545588,233,1770,220000,0.2,276.843
0.36,1180,2448.77,106.557,0.444529,298,1770,220000,0.2,130.169
0.36,1180,1652.92,79.918,0.346129,333,1770,220000,0.2,101.606
0.36,1180,2658.67,252.049,0.545588,233,2540,75000,0.2,287.198
0.36,1180,2742.62,149.59,0.431152,273,2540,75000,0.2,178.897
0.36,1180,1652.92,79.918,0.346129,333,2540,75000,0.2,105.851
0.36,1180,1567.21,43.0328,0.277231,393,2540,75000,0.2,58.6826
0.36,1180,2742.62,149.59,0.431152,273,1470,150000,0.35,166.024
0.36,1180,2448.77,106.557,0.444529,298,1470,150000,0.35,124.09
0.36,1180,1567.21,43.0328,0.277231,393,1470,150000,0.35,54.9943
0.36,1180,2658.67,252.049,0.545588,233,2530,85000,0.35,285.791
0.36,1180,2448.77,106.557,0.444529,298,2530,85000,0.35,133.555
0.36,1180,1652.92,79.918,0.346129,333,2530,85000,0.35,105.268